# <Transmitter Set: Tx: 1 5G station - Point 1> 
# <Receiver Set: Rx: 5 5g small Rx > 
# <X(m)> <Y(m)> <Z(m)> <Distance(m)> <Power(dBm)> <Phase(deg)>
1 -9.5 -9.5 1.5 51.4077 -74.2832 -105.088
2 -8.5 -9.5 1.5 52.3904 -78.194 67.5751
3 -7.5 -9.5 1.5 53.3737 -68.692 89.447
4 -6.5 -9.5 1.5 54.3576 -78.5846 27.8391
5 -5.5 -9.5 1.5 55.3421 -71.9101 -53.1197
6 -4.5 -9.5 1.5 56.3272 -76.5037 -74.9063
7 -3.5 -9.5 1.5 57.3127 -76.5297 176.164
8 -2.5 -9.5 1.5 58.2988 -73.4911 -146.981
9 -1.5 -9.5 1.5 59.2853 -86.4156 163.491
10 -0.5 -9.5 1.5 60.2723 -70.2029 84.261
11 0.5 -9.5 1.5 61.2597 -74.7325 108.627
12 1.5 -9.5 1.5 62.2475 -250 0
13 2.5 -9.5 1.5 63.2357 -250 0
14 3.5 -9.5 1.5 64.2242 -250 0
15 4.5 -9.5 1.5 65.2131 -250 0
16 5.5 -9.5 1.5 66.2023 -250 0
17 6.5 -9.5 1.5 67.1919 -250 0
18 7.5 -9.5 1.5 68.1817 -250 0
19 8.5 -9.5 1.5 69.1719 -250 0
20 9.5 -9.5 1.5 70.1623 -250 0
21 -9.5 -8.5 1.5 51.2323 -79.5359 2.43457
22 -8.5 -8.5 1.5 52.2183 -71.6744 -176.613
23 -7.5 -8.5 1.5 53.2048 -72.3859 -145.277
24 -6.5 -8.5 1.5 54.1918 -74.8346 36.2757
25 -5.5 -8.5 1.5 55.1793 -70.2071 85.0181
26 -4.5 -8.5 1.5 56.1672 -74.8111 -110.253
27 -3.5 -8.5 1.5 57.1555 -68.4478 -90.3228
28 -2.5 -8.5 1.5 58.1442 -84.1215 -85.2256
29 -1.5 -8.5 1.5 59.1333 -72.0097 105.614
30 -0.5 -8.5 1.5 60.1228 -83.3532 0.778528
31 0.5 -8.5 1.5 61.1126 -79.264 -26.9579
32 1.5 -8.5 1.5 62.1027 -80.0969 -110.307
33 2.5 -8.5 1.5 63.0932 -71.9673 -156.254
34 3.5 -8.5 1.5 64.0839 -76.4441 146.148
35 4.5 -8.5 1.5 65.075 -75.1008 24.1328
36 5.5 -8.5 1.5 66.0663 -75.8946 -65.1896
37 6.5 -8.5 1.5 67.0578 -76.9492 -159.275
38 7.5 -8.5 1.5 68.0496 -77.4335 112.721
39 8.5 -8.5 1.5 69.0417 -78.2503 28.0319
40 9.5 -8.5 1.5 70.0339 -78.3777 -63.9735
41 -9.5 -7.5 1.5 51.0759 -74.3571 -69.4567
42 -8.5 -7.5 1.5 52.0649 -70.6376 -112.957
43 -7.5 -7.5 1.5 53.0542 -89.9788 -146.37
44 -6.5 -7.5 1.5 54.044 -73.0512 78.903
45 -5.5 -7.5 1.5 55.0341 -80.3789 16.4865
46 -4.5 -7.5 1.5 56.0245 -71.598 -68.3511
47 -3.5 -7.5 1.5 57.0153 -82.7738 -170.113
48 -2.5 -7.5 1.5 58.0065 -71.9567 126.309
49 -1.5 -7.5 1.5 58.9979 -86.6907 0.834874
50 -0.5 -7.5 1.5 59.9896 -73.1046 -29.9721
51 0.5 -7.5 1.5 60.9816 -78.8058 -123.507
52 1.5 -7.5 1.5 61.9738 -77.996 153.619
53 2.5 -7.5 1.5 62.9663 -77.7658 67.9378
54 3.5 -7.5 1.5 63.959 -77.459 -30.1329
55 4.5 -7.5 1.5 64.9519 -77.4748 -109.146
56 5.5 -7.5 1.5 65.9451 -76.4842 151.627
57 6.5 -7.5 1.5 66.9384 -79.4898 55.0853
58 7.5 -7.5 1.5 67.932 -75.8874 -89.902
59 8.5 -7.5 1.5 68.9257 -250 0
60 9.5 -7.5 1.5 69.9196 -250 0
61 -9.5 -6.5 1.5 50.9387 -76.9355 -102.323
62 -8.5 -6.5 1.5 51.9302 -76.3353 162.194
63 -7.5 -6.5 1.5 52.9221 -75.7264 85.8541
64 -6.5 -6.5 1.5 53.9143 -78.6225 -0.530634
65 -5.5 -6.5 1.5 54.9067 -77.3743 -92.3359
66 -4.5 -6.5 1.5 55.8995 -76.9823 161.642
67 -3.5 -6.5 1.5 56.8924 -76.7647 74.4503
68 -2.5 -6.5 1.5 57.8857 -77.7247 -13.7603
69 -1.5 -6.5 1.5 58.8791 -77.5628 -102.763
70 -0.5 -6.5 1.5 59.8728 -78.3139 163.673
71 0.5 -6.5 1.5 60.8667 -77.8289 71.2371
72 1.5 -6.5 1.5 61.8607 -77.0441 -28.8513
73 2.5 -6.5 1.5 62.855 -77.6018 -123.836
74 3.5 -6.5 1.5 63.8494 -77.0631 137.51
75 4.5 -6.5 1.5 64.844 -77.3307 39.3913
76 5.5 -6.5 1.5 65.8388 -77.898 -58.7151
77 6.5 -6.5 1.5 66.8337 -78.9911 -163.358
78 7.5 -6.5 1.5 67.8288 -79.5861 82.4286
79 8.5 -6.5 1.5 68.8241 -250 0
80 9.5 -6.5 1.5 69.8194 -250 0
81 -9.5 -5.5 1.5 50.8208 -74.8812 101.755
82 -8.5 -5.5 1.5 51.8146 -75.6634 3.48749
83 -7.5 -5.5 1.5 52.8086 -77.0552 -83.4454
84 -6.5 -5.5 1.5 53.8029 -76.0332 168.9
85 -5.5 -5.5 1.5 54.7974 -75.4995 79.3488
86 -4.5 -5.5 1.5 55.792 -76.2357 -18.1442
87 -3.5 -5.5 1.5 56.7869 -81.4824 -126.315
88 -2.5 -5.5 1.5 57.7819 -75.3587 117.073
89 -1.5 -5.5 1.5 58.7771 -76.6986 53.3593
90 -0.5 -5.5 1.5 59.7725 -81.4166 -64.0153
91 0.5 -5.5 1.5 60.768 -77.5208 -176.628
92 1.5 -5.5 1.5 61.7637 -78.1181 72.4013
93 2.5 -5.5 1.5 62.7595 -76.8734 -30.1862
94 3.5 -5.5 1.5 63.7554 -78.2909 -134.9
95 4.5 -5.5 1.5 64.7514 -78.3672 129.213
96 5.5 -5.5 1.5 65.7476 -77.7601 16.7572
97 6.5 -5.5 1.5 66.7439 -78.0335 -87.7644
98 7.5 -5.5 1.5 67.7403 -78.9754 154.786
99 8.5 -5.5 1.5 68.7368 -78.0721 48.9173
100 9.5 -5.5 1.5 69.7334 -250 0
101 -9.5 -4.5 1.5 50.7223 -77.7171 -153.238
102 -8.5 -4.5 1.5 51.718 -74.7988 95.1669
103 -7.5 -4.5 1.5 52.7139 -75.6429 16.4128
104 -6.5 -4.5 1.5 53.7099 -78.9899 -111.312
105 -5.5 -4.5 1.5 54.706 -75.5208 140.71
106 -4.5 -4.5 1.5 55.7023 -75.1177 49.0223
107 -3.5 -4.5 1.5 56.6988 -78.6119 -55.9292
108 -2.5 -4.5 1.5 57.6953 -77.4119 178.743
109 -1.5 -4.5 1.5 58.692 -75.4542 70.759
110 -0.5 -4.5 1.5 59.6888 -77.0444 -22.0575
111 0.5 -4.5 1.5 60.6857 -78.5623 -145.429
112 1.5 -4.5 1.5 61.6827 -76.7341 106.07
113 2.5 -4.5 1.5 62.6797 -77.6002 5.95073
114 3.5 -4.5 1.5 63.6769 -78.1147 -105.194
115 4.5 -4.5 1.5 64.6742 -77.2384 138.255
116 5.5 -4.5 1.5 65.6715 -77.1655 26.7335
117 6.5 -4.5 1.5 66.669 -77.9433 -85.2194
118 7.5 -4.5 1.5 67.6665 -79.4793 157.838
119 8.5 -4.5 1.5 68.664 -78.7559 52.2701
120 9.5 -4.5 1.5 69.6617 -79.3932 -74.6906
121 -9.5 -3.5 1.5 50.6434 -78.1025 -132.955
122 -8.5 -3.5 1.5 51.6406 -74.8937 117.432
123 -7.5 -3.5 1.5 52.6379 -75.6531 14.6654
124 -6.5 -3.5 1.5 53.6353 -77.9747 -104.189
125 -5.5 -3.5 1.5 54.6329 -76.7773 137.909
126 -4.5 -3.5 1.5 55.6305 -75.3876 29.8002
127 -3.5 -3.5 1.5 56.6282 -75.68 -83.0968
128 -2.5 -3.5 1.5 57.6259 -76.1297 174.894
129 -1.5 -3.5 1.5 58.6238 -75.505 52.7495
130 -0.5 -3.5 1.5 59.6217 -75.9814 -59.3812
131 0.5 -3.5 1.5 60.6197 -78.2621 176.663
132 1.5 -3.5 1.5 61.6178 -76.9804 61.9156
133 2.5 -3.5 1.5 62.6159 -78.0128 -55.4574
134 3.5 -3.5 1.5 63.6141 -77.0943 -171.466
135 4.5 -3.5 1.5 64.6123 -76.6114 72.3161
136 5.5 -3.5 1.5 65.6106 -77.0912 -43.9008
137 6.5 -3.5 1.5 66.6089 -80.4078 -154.567
138 7.5 -3.5 1.5 67.6073 -76.703 74.8349
139 8.5 -3.5 1.5 68.6058 -77.5836 -29.4779
140 9.5 -3.5 1.5 69.6042 -77.3209 -150.707
141 -9.5 -2.5 1.5 50.5841 -76.0646 155.286
142 -8.5 -2.5 1.5 51.5825 -75.0484 42.6957
143 -7.5 -2.5 1.5 52.5809 -75.4361 -74.073
144 -6.5 -2.5 1.5 53.5794 -74.875 169.488
145 -5.5 -2.5 1.5 54.5779 -75.211 54.9997
146 -4.5 -2.5 1.5 55.5765 -76.6661 -64.9608
147 -3.5 -2.5 1.5 56.5752 -75.8534 170.415
148 -2.5 -2.5 1.5 57.5739 -76.3276 62.4619
149 -1.5 -2.5 1.5 58.5726 -76.3549 -64.1821
150 -0.5 -2.5 1.5 59.5714 -77.8871 166.998
151 0.5 -2.5 1.5 60.5702 -77.3063 48.476
152 1.5 -2.5 1.5 61.5691 -78.3016 -62.0547
153 2.5 -2.5 1.5 62.568 -79.0374 -179.199
154 3.5 -2.5 1.5 63.5669 -76.865 59.7963
155 4.5 -2.5 1.5 64.5659 -78.762 -51.2482
156 5.5 -2.5 1.5 65.5649 -78.1963 170.536
157 6.5 -2.5 1.5 66.5639 -78.3079 62.6853
158 7.5 -2.5 1.5 67.5629 -80.3227 -64.3689
159 8.5 -2.5 1.5 68.562 -77.6972 174.208
160 9.5 -2.5 1.5 69.5611 -77.6329 57.9103
161 -9.5 -1.5 1.5 50.5445 -76.3469 -12.1448
162 -8.5 -1.5 1.5 51.5437 -76.4285 -132.753
163 -7.5 -1.5 1.5 52.5428 -76.8372 109.983
164 -6.5 -1.5 1.5 53.542 -77.1257 -9.22886
165 -5.5 -1.5 1.5 54.5413 -77.0816 -136.896
166 -4.5 -1.5 1.5 55.5405 -76.2889 110.413
167 -3.5 -1.5 1.5 56.5398 -75.4464 -18.4106
168 -2.5 -1.5 1.5 57.5391 -76.367 -139.107
169 -1.5 -1.5 1.5 58.5384 -75.9078 109.263
170 -0.5 -1.5 1.5 59.5378 -75.6458 -20.2434
171 0.5 -1.5 1.5 60.5372 -76.3855 -157.771
172 1.5 -1.5 1.5 61.5366 -75.9058 105.223
173 2.5 -1.5 1.5 62.536 -79.0428 -29.0497
174 3.5 -1.5 1.5 63.5354 -76.8336 -151.112
175 4.5 -1.5 1.5 64.5349 -77.173 104.755
176 5.5 -1.5 1.5 65.5343 -78.1748 -24.7411
177 6.5 -1.5 1.5 66.5338 -79.4954 -166.66
178 7.5 -1.5 1.5 67.5333 -77.0695 77.5267
179 8.5 -1.5 1.5 68.5328 -78.2437 -41.905
180 9.5 -1.5 1.5 69.5324 -76.5482 -164.617
181 -9.5 -0.5 1.5 50.5247 -75.4069 91.7883
182 -8.5 -0.5 1.5 51.5243 -75.4818 -36.5468
183 -7.5 -0.5 1.5 52.5238 -74.7042 -173.422
184 -6.5 -0.5 1.5 53.5234 -77.2167 73.8419
185 -5.5 -0.5 1.5 54.5229 -75.9044 -45.67
186 -4.5 -0.5 1.5 55.5225 -75.345 -160.489
187 -3.5 -0.5 1.5 56.5221 -76.559 69.5557
188 -2.5 -0.5 1.5 57.5217 -77.4852 -47.1168
189 -1.5 -0.5 1.5 58.5214 -75.1984 178.329
190 -0.5 -0.5 1.5 59.521 -77.2386 65.9362
191 0.5 -0.5 1.5 60.5207 -81.2366 -62.1994
192 1.5 -0.5 1.5 61.5203 -76.4865 -179.519
193 2.5 -0.5 1.5 62.52 -74.5446 48.8943
194 3.5 -0.5 1.5 63.5197 -77.3674 -78.5572
195 4.5 -0.5 1.5 64.5194 -74.1278 168.257
196 5.5 -0.5 1.5 65.5191 -75.6791 63.7255
197 6.5 -0.5 1.5 66.5188 -78.48 -63.7989
198 7.5 -0.5 1.5 67.5185 -78.12 169.731
199 8.5 -0.5 1.5 68.5182 -77.8408 37.2508
200 9.5 -0.5 1.5 69.518 -77.07 -77.4501
201 -9.5 0.5 1.5 50.5247 -75.1684 92.1694
202 -8.5 0.5 1.5 51.5243 -74.5978 -36.7139
203 -7.5 0.5 1.5 52.5238 -76.7184 -165.294
204 -6.5 0.5 1.5 53.5234 -75.1502 86.7777
205 -5.5 0.5 1.5 54.5229 -77.4674 -49.9355
206 -4.5 0.5 1.5 55.5225 -73.6558 171.521
207 -3.5 0.5 1.5 56.5221 -74.2512 68.3903
208 -2.5 0.5 1.5 57.5217 -73.0175 -51.1832
209 -1.5 0.5 1.5 58.5214 -73.3239 -171.135
210 -0.5 0.5 1.5 59.521 -74.4662 70.013
211 0.5 0.5 1.5 60.5207 -74.0905 -44.8679
212 1.5 0.5 1.5 61.5203 -71.9966 174.679
213 2.5 0.5 1.5 62.52 -73.5221 50.5179
214 3.5 0.5 1.5 63.5197 -72.7993 -46.2597
215 4.5 0.5 1.5 64.5194 -71.3847 -179.625
216 5.5 0.5 1.5 65.5191 -73.0727 63.5312
217 6.5 0.5 1.5 66.5188 -72.8931 -42.0029
218 7.5 0.5 1.5 67.5185 -71.3593 -170.298
219 8.5 0.5 1.5 68.5182 -73.386 60.1915
220 9.5 0.5 1.5 69.518 -72.7644 -44.7717
221 -9.5 1.5 1.5 50.5445 -75.8309 -21.2999
222 -8.5 1.5 1.5 51.5437 -76.4802 -129.846
223 -7.5 1.5 1.5 52.5428 -75.9008 104.564
224 -6.5 1.5 1.5 53.542 -77.2899 -18.5496
225 -5.5 1.5 1.5 54.5413 -76.4132 -136.336
226 -4.5 1.5 1.5 55.5405 -77.3151 100.879
227 -3.5 1.5 1.5 56.5398 -76.8136 -22.7674
228 -2.5 1.5 1.5 57.5391 -76.8969 -147.091
229 -1.5 1.5 1.5 58.5384 -77.1192 96.465
230 -0.5 1.5 1.5 59.5378 -76.8753 -27.4527
231 0.5 1.5 1.5 60.5372 -77.3078 -147.193
232 1.5 1.5 1.5 61.5366 -75.3277 84.7954
233 2.5 1.5 1.5 62.536 -79.0789 -34.8514
234 3.5 1.5 1.5 63.5354 -76.2038 -148.43
235 4.5 1.5 1.5 64.5349 -77.1152 78.0876
236 5.5 1.5 1.5 65.5343 -75.8632 -34.3217
237 6.5 1.5 1.5 66.5338 -76.8748 -154.736
238 7.5 1.5 1.5 67.5333 -76.4825 82.9872
239 8.5 1.5 1.5 68.5328 -76.8979 -40.5544
240 9.5 1.5 1.5 69.5324 -76.2374 -161.173
241 -9.5 2.5 1.5 50.5841 -75.9021 161.389
242 -8.5 2.5 1.5 51.5825 -76.106 38.2543
243 -7.5 2.5 1.5 52.5809 -75.9908 -74.3041
244 -6.5 2.5 1.5 53.5794 -75.6544 168.925
245 -5.5 2.5 1.5 54.5779 -76.1079 48.3325
246 -4.5 2.5 1.5 55.5765 -76.7139 -65.7535
247 -3.5 2.5 1.5 56.5752 -76.7827 174.767
248 -2.5 2.5 1.5 57.5739 -76.9797 54.5587
249 -1.5 2.5 1.5 58.5726 -77.13 -63.2067
250 -0.5 2.5 1.5 59.5714 -76.7328 -178.482
251 0.5 2.5 1.5 60.5702 -78.1044 65.1974
252 1.5 2.5 1.5 61.5691 -76.06 -56.5534
253 2.5 2.5 1.5 62.568 -79.4458 171.839
254 3.5 2.5 1.5 63.5669 -77.3663 66.3504
255 4.5 2.5 1.5 64.5659 -77.7396 -59.3515
256 5.5 2.5 1.5 65.5649 -76.9859 -177.602
257 6.5 2.5 1.5 66.5639 -77.7574 71.7265
258 7.5 2.5 1.5 67.5629 -77.6073 -52.6143
259 8.5 2.5 1.5 68.562 -76.8624 -174.659
260 9.5 2.5 1.5 69.5611 -77.2051 65.0675
261 -9.5 3.5 1.5 50.6434 -76.1678 -125.676
262 -8.5 3.5 1.5 51.6406 -75.9583 120.928
263 -7.5 3.5 1.5 52.6379 -76.1999 10.0815
264 -6.5 3.5 1.5 53.6353 -76.4943 -100.65
265 -5.5 3.5 1.5 54.6329 -76.1569 144.138
266 -4.5 3.5 1.5 55.6305 -76.7705 29.6208
267 -3.5 3.5 1.5 56.6282 -76.7057 -81.4666
268 -2.5 3.5 1.5 57.6259 -76.9002 163.068
269 -1.5 3.5 1.5 58.6238 -77.1786 49.9781
270 -0.5 3.5 1.5 59.6217 -77.5832 -70.5136
271 0.5 3.5 1.5 60.6197 -77.2884 179.155
272 1.5 3.5 1.5 61.6178 -79.779 68.0868
273 2.5 3.5 1.5 62.6159 -76.5572 -52.6141
274 3.5 3.5 1.5 63.6141 -77.4861 -164.491
275 4.5 3.5 1.5 64.6123 -77.5097 75.082
276 5.5 3.5 1.5 65.6106 -77.1494 -38.702
277 6.5 3.5 1.5 66.6089 -77.1186 -152.736
278 7.5 3.5 1.5 67.6073 -77.2915 97.0932
279 8.5 3.5 1.5 68.6058 -76.7662 -25.0881
280 9.5 3.5 1.5 69.6042 -76.6081 -139.907
281 -9.5 4.5 1.5 50.7223 -75.8779 -147.549
282 -8.5 4.5 1.5 51.718 -75.9552 109.359
283 -7.5 4.5 1.5 52.7139 -76.2028 3.67023
284 -6.5 4.5 1.5 53.7099 -76.306 -101.351
285 -5.5 4.5 1.5 54.706 -76.7168 152.879
286 -4.5 4.5 1.5 55.7023 -76.6034 45.0054
287 -3.5 4.5 1.5 56.6988 -76.6652 -61.0895
288 -2.5 4.5 1.5 57.6953 -77.049 -171.453
289 -1.5 4.5 1.5 58.692 -77.1137 80.9654
290 -0.5 4.5 1.5 59.6888 -77.8936 -26.2292
291 0.5 4.5 1.5 60.6857 -78.9052 -139.881
292 1.5 4.5 1.5 61.6827 -75.5472 108.271
293 2.5 4.5 1.5 62.6797 -79.6521 0.315674
294 3.5 4.5 1.5 63.6769 -77.5113 -109.665
295 4.5 4.5 1.5 64.6742 -77.024 131.312
296 5.5 4.5 1.5 65.6715 -76.7151 26.1505
297 6.5 4.5 1.5 66.669 -77.2469 -81.2772
298 7.5 4.5 1.5 67.6665 -77.3051 172.294
299 8.5 4.5 1.5 68.664 -77.2598 49.9855
300 9.5 4.5 1.5 69.6617 -76.4846 -55.2338
301 -9.5 5.5 1.5 50.8208 -75.9656 98.1876
302 -8.5 5.5 1.5 51.8146 -76.15 4.98122
303 -7.5 5.5 1.5 52.8086 -76.2316 -91.4973
304 -6.5 5.5 1.5 53.8029 -76.4954 171.035
305 -5.5 5.5 1.5 54.7974 -76.5427 71.792
306 -4.5 5.5 1.5 55.792 -76.8468 -27.0911
307 -3.5 5.5 1.5 56.7869 -77.042 -126.295
308 -2.5 5.5 1.5 57.7819 -77.0588 131.048
309 -1.5 5.5 1.5 58.7771 -77.191 30.9455
310 -0.5 5.5 1.5 59.7725 -77.9103 -68.7382
311 0.5 5.5 1.5 60.768 -77.9295 -172.761
312 1.5 5.5 1.5 61.7637 -76.5434 69.9873
313 2.5 5.5 1.5 62.7595 -77.6143 -14.3218
314 3.5 5.5 1.5 63.7554 -77.2992 -125.597
315 4.5 5.5 1.5 64.7514 -77.0856 119.024
316 5.5 5.5 1.5 65.7476 -76.2163 22.516
317 6.5 5.5 1.5 66.7439 -76.6885 -81.7443
318 7.5 5.5 1.5 67.7403 -76.7268 176.229
319 8.5 5.5 1.5 68.7368 -76.6297 59.8586
320 9.5 5.5 1.5 69.7334 -76.8374 -40.0206
321 -9.5 6.5 1.5 50.9387 -76.059 -108.139
322 -8.5 6.5 1.5 51.9302 -76.0832 165.603
323 -7.5 6.5 1.5 52.9221 -76.4258 81.6531
324 -6.5 6.5 1.5 53.9143 -76.3013 -5.89841
325 -5.5 6.5 1.5 54.9067 -76.8775 -93.4382
326 -4.5 6.5 1.5 55.8995 -76.5432 175.994
327 -3.5 6.5 1.5 56.8924 -77.1447 84.8255
328 -2.5 6.5 1.5 57.8857 -76.7567 -6.68887
329 -1.5 6.5 1.5 58.8791 -77.6184 -101.899
330 -0.5 6.5 1.5 59.8728 -77.273 166.95
331 0.5 6.5 1.5 60.8667 -79.1906 65.3858
332 1.5 6.5 1.5 61.8607 -76.7445 -37.7014
333 2.5 6.5 1.5 62.855 -77.2765 -116.748
334 3.5 6.5 1.5 63.8494 -77.4843 143.068
335 4.5 6.5 1.5 64.844 -77.0852 34.2679
336 5.5 6.5 1.5 65.8388 -76.8498 -57.5151
337 6.5 6.5 1.5 66.8337 -77.2503 -152.895
338 7.5 6.5 1.5 67.8288 -76.9767 111.857
339 8.5 6.5 1.5 68.8241 -76.6241 2.8543
340 9.5 6.5 1.5 69.8194 -76.5831 -92.9764
341 -9.5 7.5 1.5 51.0759 -75.8866 -50.8093
342 -8.5 7.5 1.5 52.0649 -76.628 -121.111
343 -7.5 7.5 1.5 53.0542 -76.1482 164.19
344 -6.5 7.5 1.5 54.044 -76.8858 90.1151
345 -5.5 7.5 1.5 55.0341 -76.4815 11.8047
346 -4.5 7.5 1.5 56.0245 -77.2603 -65.4572
347 -3.5 7.5 1.5 57.0153 -76.6957 -148.342
348 -2.5 7.5 1.5 58.0065 -77.6139 132.062
349 -1.5 7.5 1.5 58.9979 -77.0707 45.7558
350 -0.5 7.5 1.5 59.9896 -77.5946 -36.5136
351 0.5 7.5 1.5 60.9816 -77.9309 -132.404
352 1.5 7.5 1.5 61.9738 -75.7432 150.061
353 2.5 7.5 1.5 62.9663 -78.3028 67.1686
354 3.5 7.5 1.5 63.959 -77.6371 -23.1632
355 4.5 7.5 1.5 64.9519 -76.9238 -125.251
356 5.5 7.5 1.5 65.9451 -76.7509 151.888
357 6.5 7.5 1.5 66.9384 -77.3594 62.0332
358 7.5 7.5 1.5 67.932 -76.9619 -24.999
359 8.5 7.5 1.5 68.9257 -76.9962 -127.508
360 9.5 7.5 1.5 69.9196 -76.7562 142.803
361 -9.5 8.5 1.5 51.2323 -76.2946 -86.3547
362 -8.5 8.5 1.5 52.2183 -76.2086 -139.012
363 -7.5 8.5 1.5 53.2048 -76.8933 157.995
364 -6.5 8.5 1.5 54.1918 -76.1775 97.4994
365 -5.5 8.5 1.5 55.1793 -77.2681 33.1769
366 -4.5 8.5 1.5 56.1672 -76.6587 -35.1538
367 -3.5 8.5 1.5 57.1555 -77.3403 -99.7788
368 -2.5 8.5 1.5 58.1442 -77.1138 -175.361
369 -1.5 8.5 1.5 59.1333 -77.2289 118.313
370 -0.5 8.5 1.5 60.1228 -77.8855 40.2588
371 0.5 8.5 1.5 61.1126 -77.6039 -34.6271
372 1.5 8.5 1.5 62.1027 -78.081 -112.478
373 2.5 8.5 1.5 63.0932 -77.6218 169.766
374 3.5 8.5 1.5 64.0839 -78.0684 93.523
375 4.5 8.5 1.5 65.075 -77.2145 1.77274
376 5.5 8.5 1.5 66.0663 -76.9718 -72.179
377 6.5 8.5 1.5 67.0578 -77.3794 -152.138
378 7.5 8.5 1.5 68.0496 -77.1712 128.83
379 8.5 8.5 1.5 69.0417 -77.0984 32.8354
380 9.5 8.5 1.5 70.0339 -76.7485 -46.0806
381 -9.5 9.5 1.5 51.4077 -76.7266 150.101
382 -8.5 9.5 1.5 52.3904 -76.1288 108.619
383 -7.5 9.5 1.5 53.3737 -76.7824 68.0728
384 -6.5 9.5 1.5 54.3576 -77.0324 15.8619
385 -5.5 9.5 1.5 55.3421 -76.5614 -31.0206
386 -4.5 9.5 1.5 56.3272 -77.4461 -83.3743
387 -3.5 9.5 1.5 57.3127 -77.0703 -141.668
388 -2.5 9.5 1.5 58.2988 -77.1774 165.183
389 -1.5 9.5 1.5 59.2853 -77.8555 101.513
390 -0.5 9.5 1.5 60.2723 -76.8286 39.5283
391 0.5 9.5 1.5 61.2597 -77.9221 -19.8629
392 1.5 9.5 1.5 62.2475 -77.6595 -89.3796
393 2.5 9.5 1.5 63.2357 -78.3134 -155.408
394 3.5 9.5 1.5 64.2242 -77.8945 137.888
395 4.5 9.5 1.5 65.2131 -77.1895 59.1631
396 5.5 9.5 1.5 66.2023 -77.0926 -8.35751
397 6.5 9.5 1.5 67.1919 -77.4301 -77.7831
398 7.5 9.5 1.5 68.1817 -77.3067 -148.958
399 8.5 9.5 1.5 69.1719 -76.9351 126.266
400 9.5 9.5 1.5 70.1623 -76.6886 54.3251
