# <Transmitter Set: Tx: 1 5G station - Point 1> 
# <Receiver Set: Rx: 5 5g small Rx > 
# <X(m)> <Y(m)> <Z(m)> <Distance(m)> <Power(dBm)> <Phase(deg)>
1 -9.5 -9.5 1.5 51.4077 -78.2623 50.4311
2 -8.5 -9.5 1.5 52.3904 -75.0483 -75.9404
3 -7.5 -9.5 1.5 53.3737 -71.5079 -67.529
4 -6.5 -9.5 1.5 54.3576 -93.821 -123.546
5 -5.5 -9.5 1.5 55.3421 -71.8938 155.554
6 -4.5 -9.5 1.5 56.3272 -78.1922 173.792
7 -3.5 -9.5 1.5 57.3127 -76.698 30.9329
8 -2.5 -9.5 1.5 58.2988 -68.3523 44.8339
9 -1.5 -9.5 1.5 59.2853 -75.8185 32.8459
10 -0.5 -9.5 1.5 60.2723 -73.3448 -98.9022
11 0.5 -9.5 1.5 61.2597 -72.1686 -95.6356
12 1.5 -9.5 1.5 62.2475 -84.6573 132.336
13 2.5 -9.5 1.5 63.2357 -75.351 85.3264
14 3.5 -9.5 1.5 64.2242 -77.9268 -58.3144
15 4.5 -9.5 1.5 65.2131 -73.0885 -77.3037
16 5.5 -9.5 1.5 66.2023 -80.2661 -171.071
17 6.5 -9.5 1.5 67.1919 -74.4011 125.395
18 7.5 -9.5 1.5 68.1817 -81.5982 47.2178
19 8.5 -9.5 1.5 69.1719 -76.1137 -39.6532
20 9.5 -9.5 1.5 70.1623 -79.2773 -93.6702
21 -9.5 -8.5 1.5 51.2323 -78.9808 169.134
22 -8.5 -8.5 1.5 52.2183 -73.0515 38.2435
23 -7.5 -8.5 1.5 53.2048 -72.4801 39.8786
24 -6.5 -8.5 1.5 54.1918 -78.2845 -110.761
25 -5.5 -8.5 1.5 55.1793 -72.7224 -110.066
26 -4.5 -8.5 1.5 56.1672 -83.334 130.604
27 -3.5 -8.5 1.5 57.1555 -72.6867 112.941
28 -2.5 -8.5 1.5 58.1442 -83.4592 19.1379
29 -1.5 -8.5 1.5 59.1333 -72.3315 -33.8248
30 -0.5 -8.5 1.5 60.1228 -84.6345 -80.1191
31 0.5 -8.5 1.5 61.1126 -72.8628 160.279
32 1.5 -8.5 1.5 62.1027 -81.4311 137.651
33 2.5 -8.5 1.5 63.0932 -71.6554 24.4257
34 3.5 -8.5 1.5 64.0839 -73.6778 4.32412
35 4.5 -8.5 1.5 65.075 -81.7075 -124.115
36 5.5 -8.5 1.5 66.0663 -81.3443 -141.537
37 6.5 -8.5 1.5 67.0578 -82.2025 -19.024
38 7.5 -8.5 1.5 68.0496 -86.5547 -99.1216
39 8.5 -8.5 1.5 69.0417 -76.3838 -138.581
40 9.5 -8.5 1.5 70.0339 -79.3544 167.413
41 -9.5 -7.5 1.5 51.0759 -76.1897 160.502
42 -8.5 -7.5 1.5 52.0649 -75.1046 83.8477
43 -7.5 -7.5 1.5 53.0542 -76.8523 15.7251
44 -6.5 -7.5 1.5 54.044 -74.1682 -67.7085
45 -5.5 -7.5 1.5 55.0341 -75.8016 -138.027
46 -4.5 -7.5 1.5 56.0245 -75.9355 121.699
47 -3.5 -7.5 1.5 57.0153 -78.7182 80.4584
48 -2.5 -7.5 1.5 58.0065 -73.8908 -25.575
49 -1.5 -7.5 1.5 58.9979 -80.2712 -99.1219
50 -0.5 -7.5 1.5 59.9896 -73.2101 169.168
51 0.5 -7.5 1.5 60.9816 -81.9423 90.7695
52 1.5 -7.5 1.5 61.9738 -73.425 2.84526
53 2.5 -7.5 1.5 62.9663 -81.3873 -109.647
54 3.5 -7.5 1.5 63.959 -74.6418 -170.639
55 4.5 -7.5 1.5 64.9519 -79.5644 49.5222
56 5.5 -7.5 1.5 65.9451 -75.7105 14.64
57 6.5 -7.5 1.5 66.9384 -78.7498 -118.706
58 7.5 -7.5 1.5 67.932 -79.2095 122.692
59 8.5 -7.5 1.5 68.9257 -71.2127 33.1314
60 9.5 -7.5 1.5 69.9196 -72.6323 -14.5522
61 -9.5 -6.5 1.5 50.9387 -75.5397 97.4579
62 -8.5 -6.5 1.5 51.9302 -75.1209 7.83099
63 -7.5 -6.5 1.5 52.9221 -75.4312 -72.9924
64 -6.5 -6.5 1.5 53.9143 -76.6211 -162.521
65 -5.5 -6.5 1.5 54.9067 -76.185 115.612
66 -4.5 -6.5 1.5 55.8995 -74.8308 18.0315
67 -3.5 -6.5 1.5 56.8924 -75.8549 -76.8628
68 -2.5 -6.5 1.5 57.8857 -76.2153 -163.525
69 -1.5 -6.5 1.5 58.8791 -75.9389 107.705
70 -0.5 -6.5 1.5 59.8728 -76.4569 9.44554
71 0.5 -6.5 1.5 60.8667 -77.1297 -79.9714
72 1.5 -6.5 1.5 61.8607 -78.2131 175.574
73 2.5 -6.5 1.5 62.855 -75.8219 82.4669
74 3.5 -6.5 1.5 63.8494 -75.4052 -18.0488
75 4.5 -6.5 1.5 64.844 -76.5363 -98.0662
76 5.5 -6.5 1.5 65.8388 -76.4322 155.701
77 6.5 -6.5 1.5 66.8337 -79.7094 61.8682
78 7.5 -6.5 1.5 67.8288 -77.7092 -33.9634
79 8.5 -6.5 1.5 68.8241 -80.9862 -145.989
80 9.5 -6.5 1.5 69.8194 -81.5022 126.976
81 -9.5 -5.5 1.5 50.8208 -74.7873 -49.9766
82 -8.5 -5.5 1.5 51.8146 -75.5675 -151.072
83 -7.5 -5.5 1.5 52.8086 -75.4796 116.017
84 -6.5 -5.5 1.5 53.8029 -76.2019 23.963
85 -5.5 -5.5 1.5 54.7974 -76.7895 -77.7587
86 -4.5 -5.5 1.5 55.792 -75.1113 -175.051
87 -3.5 -5.5 1.5 56.7869 -75.1499 73.04
88 -2.5 -5.5 1.5 57.7819 -75.5233 -7.40703
89 -1.5 -5.5 1.5 58.7771 -78.1427 -108.35
90 -0.5 -5.5 1.5 59.7725 -81.0426 146.455
91 0.5 -5.5 1.5 60.768 -109.102 99.0408
92 1.5 -5.5 1.5 61.7637 -85.425 -83.5541
93 2.5 -5.5 1.5 62.7595 -86.086 158.718
94 3.5 -5.5 1.5 63.7554 -88.8229 38.9367
95 4.5 -5.5 1.5 64.7514 -87.6869 -79.5697
96 5.5 -5.5 1.5 65.7476 -90.9715 162.842
97 6.5 -5.5 1.5 66.7439 -90.5048 41.8826
98 7.5 -5.5 1.5 67.7403 -89.3449 -83.8699
99 8.5 -5.5 1.5 68.7368 -93.1306 150.251
100 9.5 -5.5 1.5 69.7334 -93.1807 18.9227
101 -9.5 -4.5 1.5 50.7223 -75.541 58.5712
102 -8.5 -4.5 1.5 51.718 -75.0054 -44.1778
103 -7.5 -4.5 1.5 52.7139 -75.8886 -152.093
104 -6.5 -4.5 1.5 53.7099 -76.6448 109.527
105 -5.5 -4.5 1.5 54.706 -75.6825 -2.13554
106 -4.5 -4.5 1.5 55.7023 -101.185 -6.08303
107 -3.5 -4.5 1.5 56.6988 -97.2114 103.785
108 -2.5 -4.5 1.5 57.6953 -96.0058 -172.815
109 -1.5 -4.5 1.5 58.692 -98.019 161.671
110 -0.5 -4.5 1.5 59.6888 -94.7969 79.836
111 0.5 -4.5 1.5 60.6857 -98.2012 12.0945
112 1.5 -4.5 1.5 61.6827 -94.9539 -114.195
113 2.5 -4.5 1.5 62.6797 -93.2725 147.679
114 3.5 -4.5 1.5 63.6769 -97.6908 -3.80317
115 4.5 -4.5 1.5 64.6742 -95.6894 -103.993
116 5.5 -4.5 1.5 65.6715 -95.7003 137.332
117 6.5 -4.5 1.5 66.669 -102.74 32.2911
118 7.5 -4.5 1.5 67.6665 -99.6698 -104.81
119 8.5 -4.5 1.5 68.664 -98.3775 124.27
120 9.5 -4.5 1.5 69.6617 -103.633 12.7423
121 -9.5 -3.5 1.5 50.6434 -75.4023 75.5925
122 -8.5 -3.5 1.5 51.6406 -74.784 -30.555
123 -7.5 -3.5 1.5 52.6379 -76.0982 -147.175
124 -6.5 -3.5 1.5 53.6353 -75.7501 96.6586
125 -5.5 -3.5 1.5 54.6329 -75.9495 -11.0341
126 -4.5 -3.5 1.5 55.6305 -109.583 119.732
127 -3.5 -3.5 1.5 56.6282 -94.3903 20.8136
128 -2.5 -3.5 1.5 57.6259 -101.229 -138.101
129 -1.5 -3.5 1.5 58.6238 -100.934 -129.706
130 -0.5 -3.5 1.5 59.6217 -107.806 57.144
131 0.5 -3.5 1.5 60.6197 -98.4795 174.134
132 1.5 -3.5 1.5 61.6178 -101.975 -179.12
133 2.5 -3.5 1.5 62.6159 -97.5275 -157.837
134 3.5 -3.5 1.5 63.6141 -99.943 -160.892
135 4.5 -3.5 1.5 64.6123 -77.5062 -80.2067
136 5.5 -3.5 1.5 65.6106 -78.05 160.056
137 6.5 -3.5 1.5 66.6089 -77.4079 40.8067
138 7.5 -3.5 1.5 67.6073 -77.8359 -75.9535
139 8.5 -3.5 1.5 68.6058 -77.5159 173.165
140 9.5 -3.5 1.5 69.6042 -77.281 52.3094
141 -9.5 -2.5 1.5 50.5841 -74.7709 7.05582
142 -8.5 -2.5 1.5 51.5825 -74.9352 -113.723
143 -7.5 -2.5 1.5 52.5809 -75.4482 129.071
144 -6.5 -2.5 1.5 53.5794 -75.5832 14.6048
145 -5.5 -2.5 1.5 54.5779 -75.8336 -108.447
146 -4.5 -2.5 1.5 55.5765 -76.1113 131.527
147 -3.5 -2.5 1.5 56.5752 -76.2171 12.4613
148 -2.5 -2.5 1.5 57.5739 -76.0226 -99.6148
149 -1.5 -2.5 1.5 58.5726 -76.576 137.697
150 -0.5 -2.5 1.5 59.5714 -76.5976 22.3333
151 0.5 -2.5 1.5 60.5702 -76.9222 -99.958
152 1.5 -2.5 1.5 61.5691 -76.62 144.173
153 2.5 -2.5 1.5 62.568 -76.5004 22.6678
154 3.5 -2.5 1.5 63.5669 -76.9904 -101.327
155 4.5 -2.5 1.5 64.5659 -76.8623 142.836
156 5.5 -2.5 1.5 65.5649 -77.3931 23.1764
157 6.5 -2.5 1.5 66.5639 -77.063 -100.078
158 7.5 -2.5 1.5 67.5629 -78.0007 143.431
159 8.5 -2.5 1.5 68.562 -77.804 20.191
160 9.5 -2.5 1.5 69.5611 -78.0526 -98.791
161 -9.5 -1.5 1.5 50.5445 -74.5512 -167.223
162 -8.5 -1.5 1.5 51.5437 -76.6823 68.9624
163 -7.5 -1.5 1.5 52.5428 -74.2926 -50.5867
164 -6.5 -1.5 1.5 53.542 -75.5002 -171.361
165 -5.5 -1.5 1.5 54.5413 -77.3984 64.4157
166 -4.5 -1.5 1.5 55.5405 -75.7524 -43.4546
167 -3.5 -1.5 1.5 56.5398 -74.5411 -176.587
168 -2.5 -1.5 1.5 57.5391 -76.9652 63.2551
169 -1.5 -1.5 1.5 58.5384 -76.1931 -49.2864
170 -0.5 -1.5 1.5 59.5378 -76.2906 176.877
171 0.5 -1.5 1.5 60.5372 -78.1422 58.1098
172 1.5 -1.5 1.5 61.5366 -77.3411 -52.8776
173 2.5 -1.5 1.5 62.536 -78.5755 163.715
174 3.5 -1.5 1.5 63.5354 -76.4047 33.9748
175 4.5 -1.5 1.5 64.5349 -75.7265 -86.008
176 5.5 -1.5 1.5 65.5343 -74.768 162.249
177 6.5 -1.5 1.5 66.5338 -74.5562 40.982
178 7.5 -1.5 1.5 67.5333 -74.1766 -79.46
179 8.5 -1.5 1.5 68.5328 -73.8005 163.839
180 9.5 -1.5 1.5 69.5324 -73.9546 43.4608
181 -9.5 -0.5 1.5 50.5247 -74.6096 -66.9568
182 -8.5 -0.5 1.5 51.5243 -75.1279 165.61
183 -7.5 -0.5 1.5 52.5238 -74.8027 39.4973
184 -6.5 -0.5 1.5 53.5234 -76.5307 -78.9534
185 -5.5 -0.5 1.5 54.5229 -74.6955 164.688
186 -4.5 -0.5 1.5 55.5225 -75.398 27.1621
187 -3.5 -0.5 1.5 56.5221 -78.7155 -94.2256
188 -2.5 -0.5 1.5 57.5217 -75.2908 156.317
189 -1.5 -0.5 1.5 58.5214 -76.006 9.88113
190 -0.5 -0.5 1.5 59.521 -79.2368 -94.9756
191 0.5 -0.5 1.5 60.5207 -77.123 143.703
192 1.5 -0.5 1.5 61.5203 -77.1112 23.3909
193 2.5 -0.5 1.5 62.52 -79.1458 -116.764
194 3.5 -0.5 1.5 63.5197 -75.9429 113.899
195 4.5 -0.5 1.5 64.5194 -75.846 -9.07309
196 5.5 -0.5 1.5 65.5191 -74.5194 -128.38
197 6.5 -0.5 1.5 66.5188 -74.4286 113.308
198 7.5 -0.5 1.5 67.5185 -74.2042 -7.58675
199 8.5 -0.5 1.5 68.5182 -74.5869 -127.246
200 9.5 -0.5 1.5 69.518 -74.3383 115.298
201 -9.5 0.5 1.5 50.5247 -75.4954 -68.6698
202 -8.5 0.5 1.5 51.5243 -75.4274 167.874
203 -7.5 0.5 1.5 52.5238 -74.9564 41.9375
204 -6.5 0.5 1.5 53.5234 -77.2862 -80.556
205 -5.5 0.5 1.5 54.5229 -74.4047 164.658
206 -4.5 0.5 1.5 55.5225 -75.9335 22.3314
207 -3.5 0.5 1.5 56.5221 -76.8598 -65.1424
208 -2.5 0.5 1.5 57.5217 -75.863 141.476
209 -1.5 0.5 1.5 58.5214 -76.6047 14.4083
210 -0.5 0.5 1.5 59.521 -79.424 -111.277
211 0.5 0.5 1.5 60.5207 -76.723 151.677
212 1.5 0.5 1.5 61.5203 -76.6886 15.2143
213 2.5 0.5 1.5 62.52 -80.083 -127.545
214 3.5 0.5 1.5 63.5197 -77.2077 121.011
215 4.5 0.5 1.5 64.5194 -73.926 -10.6823
216 5.5 0.5 1.5 65.5191 -75.6261 -132.321
217 6.5 0.5 1.5 66.5188 -75.5411 120.886
218 7.5 0.5 1.5 67.5185 -72.7619 -3.37471
219 8.5 0.5 1.5 68.5182 -74.8998 -139.373
220 9.5 0.5 1.5 69.518 -74.7213 125.599
221 -9.5 1.5 1.5 50.5445 -75.7526 -174.214
222 -8.5 1.5 1.5 51.5437 -75.7733 73.6653
223 -7.5 1.5 1.5 52.5428 -75.0478 -49.9004
224 -6.5 1.5 1.5 53.542 -75.784 -174.049
225 -5.5 1.5 1.5 54.5413 -75.401 70.8444
226 -4.5 1.5 1.5 55.5405 -76.5648 -55.7228
227 -3.5 1.5 1.5 56.5398 -76.1419 -165.208
228 -2.5 1.5 1.5 57.5391 -76.2543 61.6826
229 -1.5 1.5 1.5 58.5384 -76.5754 -53.9699
230 -0.5 1.5 1.5 59.5378 -75.58 176.81
231 0.5 1.5 1.5 60.5372 -77.6234 63.5096
232 1.5 1.5 1.5 61.5366 -75.9504 -55.5903
233 2.5 1.5 1.5 62.536 -77.2904 176.544
234 3.5 1.5 1.5 63.5354 -76.2731 53.5014
235 4.5 1.5 1.5 64.5349 -78.5016 -77.6787
236 5.5 1.5 1.5 65.5343 -74.0609 165.509
237 6.5 1.5 1.5 66.5338 -75.3262 37.9492
238 7.5 1.5 1.5 67.5333 -73.609 -77.6178
239 8.5 1.5 1.5 68.5328 -74.6249 167.698
240 9.5 1.5 1.5 69.5324 -74.7635 42.6899
241 -9.5 2.5 1.5 50.5841 -75.3692 2.66118
242 -8.5 2.5 1.5 51.5825 -74.6338 -114.489
243 -7.5 2.5 1.5 52.5809 -75.8978 127.508
244 -6.5 2.5 1.5 53.5794 -75.7196 13.569
245 -5.5 2.5 1.5 54.5779 -75.5195 -106.174
246 -4.5 2.5 1.5 55.5765 -76.2862 141.736
247 -3.5 2.5 1.5 56.5752 -79.6081 17.3774
248 -2.5 2.5 1.5 57.5739 -74.7945 -91.5671
249 -1.5 2.5 1.5 58.5726 -75.4884 122.661
250 -0.5 2.5 1.5 59.5714 -78.757 22.1008
251 0.5 2.5 1.5 60.5702 -76.8836 -99.0727
252 1.5 2.5 1.5 61.5691 -75.7097 149.723
253 2.5 2.5 1.5 62.568 -77.9651 11.908
254 3.5 2.5 1.5 63.5669 -76.5875 -93.2986
255 4.5 2.5 1.5 64.5659 -77.0344 149.923
256 5.5 2.5 1.5 65.5649 -79.8661 16.7105
257 6.5 2.5 1.5 66.5639 -76.4565 -102.677
258 7.5 2.5 1.5 67.5629 -76.4806 138.049
259 8.5 2.5 1.5 68.562 -76.5977 37.6258
260 9.5 2.5 1.5 69.5611 -79.2639 -93.1439
261 -9.5 3.5 1.5 50.6434 -74.9026 76.3856
262 -8.5 3.5 1.5 51.6406 -75.9314 -28.9941
263 -7.5 3.5 1.5 52.6379 -74.7939 -142.239
264 -6.5 3.5 1.5 53.6353 -76.0457 103.391
265 -5.5 3.5 1.5 54.6329 -76.5612 -7.84296
266 -4.5 3.5 1.5 55.6305 -75.185 -122.274
267 -3.5 3.5 1.5 56.6282 -76.3905 112.2
268 -2.5 3.5 1.5 57.6259 -78.1688 17.417
269 -1.5 3.5 1.5 58.6238 -74.496 -111.94
270 -0.5 3.5 1.5 59.6217 -78.4541 150.492
271 0.5 3.5 1.5 60.6197 -78.2839 18.4693
272 1.5 3.5 1.5 61.6178 -75.4395 -105.075
273 2.5 3.5 1.5 62.6159 -75.5827 149.674
274 3.5 3.5 1.5 63.6141 -74.9689 48.5922
275 4.5 3.5 1.5 64.6123 -76.6658 -66.0417
276 5.5 3.5 1.5 65.6106 -79.6418 -168.51
277 6.5 3.5 1.5 66.6089 -80.0601 65.0694
278 7.5 3.5 1.5 67.6073 -80.5544 -51.9741
279 8.5 3.5 1.5 68.6058 -80.9334 128.542
280 9.5 3.5 1.5 69.6042 -76.4014 76.8589
281 -9.5 4.5 1.5 50.7223 -75.3831 61.3882
282 -8.5 4.5 1.5 51.718 -75.4551 -47.8537
283 -7.5 4.5 1.5 52.7139 -76.4253 -150.016
284 -6.5 4.5 1.5 53.7099 -75.2002 108.344
285 -5.5 4.5 1.5 54.706 -78.0569 -13.4453
286 -4.5 4.5 1.5 55.7023 -73.9318 -103.845
287 -3.5 4.5 1.5 56.6988 -75.3057 158.376
288 -2.5 4.5 1.5 57.6953 -76.439 68.3095
289 -1.5 4.5 1.5 58.692 -74.4711 -89.344
290 -0.5 4.5 1.5 59.6888 -74.5181 169.66
291 0.5 4.5 1.5 60.6857 -75.7849 52.6664
292 1.5 4.5 1.5 61.6827 -76.4531 -50.8185
293 2.5 4.5 1.5 62.6797 -75.8535 -164.296
294 3.5 4.5 1.5 63.6769 -77.4621 81.7567
295 4.5 4.5 1.5 64.6742 -77.253 -19.7621
296 5.5 4.5 1.5 65.6715 -77.0358 -139.816
297 6.5 4.5 1.5 66.669 -78.5988 109.533
298 7.5 4.5 1.5 67.6665 -78.0555 4.64887
299 8.5 4.5 1.5 68.664 -77.7675 -117.766
300 9.5 4.5 1.5 69.6617 -79.4501 134.251
301 -9.5 5.5 1.5 50.8208 -75.3371 -52.1185
302 -8.5 5.5 1.5 51.8146 -75.8412 -150.508
303 -7.5 5.5 1.5 52.8086 -75.9076 117.788
304 -6.5 5.5 1.5 53.8029 -75.7297 16.4507
305 -5.5 5.5 1.5 54.7974 -75.8889 -81.8211
306 -4.5 5.5 1.5 55.792 -76.0453 178.955
307 -3.5 5.5 1.5 56.7869 -77.3421 80.5102
308 -2.5 5.5 1.5 57.7819 -76.4536 -16.3732
309 -1.5 5.5 1.5 58.7771 -76.8484 -125.584
310 -0.5 5.5 1.5 59.7725 -76.4592 136.33
311 0.5 5.5 1.5 60.768 -77.0304 29.7945
312 1.5 5.5 1.5 61.7637 -76.8452 -74.535
313 2.5 5.5 1.5 62.7595 -77.1068 -178.387
314 3.5 5.5 1.5 63.7554 -77.2422 76.3312
315 4.5 5.5 1.5 64.7514 -77.3448 -28.8041
316 5.5 5.5 1.5 65.7476 -77.6141 -136.739
317 6.5 5.5 1.5 66.7439 -77.6711 116.563
318 7.5 5.5 1.5 67.7403 -77.7188 10.3638
319 8.5 5.5 1.5 68.7368 -77.948 -97.5024
320 9.5 5.5 1.5 69.7334 -77.8603 153.147
321 -9.5 6.5 1.5 50.9387 -75.0829 96.1404
322 -8.5 6.5 1.5 51.9302 -75.577 9.94222
323 -7.5 6.5 1.5 52.9221 -75.6883 -71.8289
324 -6.5 6.5 1.5 53.9143 -75.7446 -159.316
325 -5.5 6.5 1.5 54.9067 -75.9032 112.124
326 -4.5 6.5 1.5 55.8995 -76.059 22.269
327 -3.5 6.5 1.5 56.8924 -75.8863 -66.3329
328 -2.5 6.5 1.5 57.8857 -77.6043 -154.944
329 -1.5 6.5 1.5 58.8791 -76.0192 103.252
330 -0.5 6.5 1.5 59.8728 -76.9924 10.8369
331 0.5 6.5 1.5 60.8667 -76.6069 -85.8865
332 1.5 6.5 1.5 61.8607 -76.9306 179.291
333 2.5 6.5 1.5 62.855 -77.2027 81.6216
334 3.5 6.5 1.5 63.8494 -77.2019 -14.8021
335 4.5 6.5 1.5 64.844 -77.4031 -114.467
336 5.5 6.5 1.5 65.8388 -77.3444 145.475
337 6.5 6.5 1.5 66.8337 -77.4756 45.8566
338 7.5 6.5 1.5 67.8288 -77.5998 -57.2022
339 8.5 6.5 1.5 68.8241 -77.843 -157.036
340 9.5 6.5 1.5 69.8194 -77.9761 100.237
341 -9.5 7.5 1.5 51.0759 -75.2932 156.575
342 -8.5 7.5 1.5 52.0649 -75.2408 83.0657
343 -7.5 7.5 1.5 53.0542 -75.4016 13.0992
344 -6.5 7.5 1.5 54.044 -75.7625 -62.9781
345 -5.5 7.5 1.5 55.0341 -75.9204 -140.281
346 -4.5 7.5 1.5 56.0245 -76.0755 140.724
347 -3.5 7.5 1.5 57.0153 -76.917 67.6989
348 -2.5 7.5 1.5 58.0065 -75.7942 -26.9001
349 -1.5 7.5 1.5 58.9979 -76.1475 -106.946
350 -0.5 7.5 1.5 59.9896 -76.5459 169.44
351 0.5 7.5 1.5 60.9816 -77.0464 84.9781
352 1.5 7.5 1.5 61.9738 -77.0828 -3.57966
353 2.5 7.5 1.5 62.9663 -77.3431 -92.7616
354 3.5 7.5 1.5 63.959 -77.1426 177.315
355 4.5 7.5 1.5 64.9519 -77.4975 86.6239
356 5.5 7.5 1.5 65.9451 -77.5929 -4.52644
357 6.5 7.5 1.5 66.9384 -77.6234 -98.954
358 7.5 7.5 1.5 67.932 -77.733 167.037
359 8.5 7.5 1.5 68.9257 -77.9214 73.7457
360 9.5 7.5 1.5 69.9196 -78.1036 -22.5652
361 -9.5 8.5 1.5 51.2323 -75.5973 126.72
362 -8.5 8.5 1.5 52.2183 -75.3457 71.8115
363 -7.5 8.5 1.5 53.2048 -75.5629 8.4966
364 -6.5 8.5 1.5 54.1918 -75.8554 -53.2292
365 -5.5 8.5 1.5 55.1793 -75.9408 -118.439
366 -4.5 8.5 1.5 56.1672 -76.0951 174.888
367 -3.5 8.5 1.5 57.1555 -75.7478 104.552
368 -2.5 8.5 1.5 58.1442 -77.0905 45.7186
369 -1.5 8.5 1.5 59.1333 -76.5307 -41.9286
370 -0.5 8.5 1.5 60.1228 -76.8494 -111.582
371 0.5 8.5 1.5 61.1126 -76.8977 175.184
372 1.5 8.5 1.5 62.1027 -76.8363 96.9042
373 2.5 8.5 1.5 63.0932 -77.3465 17.4555
374 3.5 8.5 1.5 64.0839 -77.2218 -62.8741
375 4.5 8.5 1.5 65.075 -77.2926 -145.427
376 5.5 8.5 1.5 66.0663 -77.5683 130.765
377 6.5 8.5 1.5 67.0578 -77.7655 47.8877
378 7.5 8.5 1.5 68.0496 -77.8521 -38.0582
379 8.5 8.5 1.5 69.0417 -77.8687 -123.81
380 9.5 8.5 1.5 70.0339 -78.0952 146.76
381 -9.5 9.5 1.5 51.4077 -75.3329 2.28283
382 -8.5 9.5 1.5 52.3904 -75.1932 -41.7369
383 -7.5 9.5 1.5 53.3737 -75.7585 -84.44
384 -6.5 9.5 1.5 54.3576 -75.7851 -132.119
385 -5.5 9.5 1.5 55.3421 -75.9693 178.691
386 -4.5 9.5 1.5 56.3272 -76.1141 125.074
387 -3.5 9.5 1.5 57.3127 -76.6148 63.4846
388 -2.5 9.5 1.5 58.2988 -75.823 20.6448
389 -1.5 9.5 1.5 59.2853 -77.035 -49.9029
390 -0.5 9.5 1.5 60.2723 -76.7435 -111.504
391 0.5 9.5 1.5 61.2597 -76.5277 -171.507
392 1.5 9.5 1.5 62.2475 -76.9828 120.978
393 2.5 9.5 1.5 63.2357 -77.3181 51.7584
394 3.5 9.5 1.5 64.2242 -77.3292 -18.5872
395 4.5 9.5 1.5 65.2131 -77.3218 -89.1824
396 5.5 9.5 1.5 66.2023 -77.5992 -162.707
397 6.5 9.5 1.5 67.1919 -77.5047 123.157
398 7.5 9.5 1.5 68.1817 -77.8742 46.7414
399 8.5 9.5 1.5 69.1719 -77.8687 -30.6788
400 9.5 9.5 1.5 70.1623 -77.9717 -109.439
