# <Transmitter Set: Tx: 1 5G station - Point 1> 
# <Receiver Set: Rx: 5 5g small Rx > 
# <X(m)> <Y(m)> <Z(m)> <Distance(m)> <Power(dBm)> <Phase(deg)>
1 -9.5 -9.5 1.5 51.4077 -82.9186 -93.0957
2 -8.5 -9.5 1.5 52.3904 -76.4022 143.805
3 -7.5 -9.5 1.5 53.3737 -72.983 169.656
4 -6.5 -9.5 1.5 54.3576 -89.2678 148.241
5 -5.5 -9.5 1.5 55.3421 -72.2532 27.7962
6 -4.5 -9.5 1.5 56.3272 -78.6014 33.9206
7 -3.5 -9.5 1.5 57.3127 -76.0726 -100.227
8 -2.5 -9.5 1.5 58.2988 -69.2554 -87.2334
9 -1.5 -9.5 1.5 59.2853 -76.3024 -94.5875
10 -0.5 -9.5 1.5 60.2723 -74.6933 131.193
11 0.5 -9.5 1.5 61.2597 -72.5814 139.207
12 1.5 -9.5 1.5 62.2475 -84.9334 14.5588
13 2.5 -9.5 1.5 63.2357 -75.585 -39.5603
14 3.5 -9.5 1.5 64.2242 -77.9645 172.081
15 4.5 -9.5 1.5 65.2131 -73.3602 150.881
16 5.5 -9.5 1.5 66.2023 -80.4466 48.274
17 6.5 -9.5 1.5 67.1919 -75.1815 -6.21952
18 7.5 -9.5 1.5 68.1817 -83.3265 -92.2893
19 8.5 -9.5 1.5 69.1719 -77.3727 -168.393
20 9.5 -9.5 1.5 70.1623 -80.8299 138.22
21 -9.5 -8.5 1.5 51.2323 -81.3889 39.7418
22 -8.5 -8.5 1.5 52.2183 -73.477 -92.5195
23 -7.5 -8.5 1.5 53.2048 -73.2679 -88.284
24 -6.5 -8.5 1.5 54.1918 -78.6517 123.853
25 -5.5 -8.5 1.5 55.1793 -72.4513 123.232
26 -4.5 -8.5 1.5 56.1672 -85.0809 6.42054
27 -3.5 -8.5 1.5 57.1555 -72.9974 -19.0166
28 -2.5 -8.5 1.5 58.1442 -83.9813 -123.72
29 -1.5 -8.5 1.5 59.1333 -73.4963 -163.912
30 -0.5 -8.5 1.5 60.1228 -85.8953 147.497
31 0.5 -8.5 1.5 61.1126 -73.9076 31.1334
32 1.5 -8.5 1.5 62.1027 -82.8772 12.609
33 2.5 -8.5 1.5 63.0932 -72.186 -102.365
34 3.5 -8.5 1.5 64.0839 -73.8138 -125.407
35 4.5 -8.5 1.5 65.075 -81.0114 116.76
36 5.5 -8.5 1.5 66.0663 -80.8236 80.1148
37 6.5 -8.5 1.5 67.0578 -83.1637 -141.951
38 7.5 -8.5 1.5 68.0496 -85.7716 143.764
39 8.5 -8.5 1.5 69.0417 -76.5048 88.781
40 9.5 -8.5 1.5 70.0339 -79.2913 32.7737
41 -9.5 -7.5 1.5 51.0759 -77.1536 24.3468
42 -8.5 -7.5 1.5 52.0649 -76.7452 -47.16
43 -7.5 -7.5 1.5 53.0542 -78.1146 -111.231
44 -6.5 -7.5 1.5 54.044 -75.3461 166.289
45 -5.5 -7.5 1.5 55.0341 -76.0512 97.2003
46 -4.5 -7.5 1.5 56.0245 -75.7298 1.27736
47 -3.5 -7.5 1.5 57.0153 -77.4259 -48.2485
48 -2.5 -7.5 1.5 58.0065 -73.7336 -156.347
49 -1.5 -7.5 1.5 58.9979 -79.5117 128.36
50 -0.5 -7.5 1.5 59.9896 -73.0964 35.8819
51 0.5 -7.5 1.5 60.9816 -82.369 -50.8432
52 1.5 -7.5 1.5 61.9738 -73.9642 -130.135
53 2.5 -7.5 1.5 62.9663 -82.6326 108.283
54 3.5 -7.5 1.5 63.959 -75.6705 59.439
55 4.5 -7.5 1.5 64.9519 -80.7696 -88.6182
56 5.5 -7.5 1.5 65.9451 -76.7583 -109.885
57 6.5 -7.5 1.5 66.9384 -79.9709 111.46
58 7.5 -7.5 1.5 67.932 -81.8696 -8.20364
59 8.5 -7.5 1.5 68.9257 -72.0145 -94.8599
60 9.5 -7.5 1.5 69.9196 -73.3614 -141.849
61 -9.5 -6.5 1.5 50.9387 -75.8701 -35.3565
62 -8.5 -6.5 1.5 51.9302 -75.7463 -126.028
63 -7.5 -6.5 1.5 52.9221 -76.4028 153.848
64 -6.5 -6.5 1.5 53.9143 -77.9207 65.2369
65 -5.5 -6.5 1.5 54.9067 -77.3207 -14.3969
66 -4.5 -6.5 1.5 55.8995 -75.258 -104.896
67 -3.5 -6.5 1.5 56.8924 -76.9862 160.815
68 -2.5 -6.5 1.5 57.8857 -77.228 73.106
69 -1.5 -6.5 1.5 58.8791 -76.4322 -15.646
70 -0.5 -6.5 1.5 59.8728 -76.8478 -116.025
71 0.5 -6.5 1.5 60.8667 -77.2227 156.899
72 1.5 -6.5 1.5 61.8607 -77.8691 49.4685
73 2.5 -6.5 1.5 62.855 -75.8583 -44.7797
74 3.5 -6.5 1.5 63.8494 -75.3904 -145.915
75 4.5 -6.5 1.5 64.844 -76.5364 131.69
76 5.5 -6.5 1.5 65.8388 -76.4092 25.0919
77 6.5 -6.5 1.5 66.8337 -79.7407 -72.0332
78 7.5 -6.5 1.5 67.8288 -78.0804 -167.652
79 8.5 -6.5 1.5 68.8241 -81.3629 78.1847
80 9.5 -6.5 1.5 69.8194 -82.251 -8.81376
81 -9.5 -5.5 1.5 50.8208 -74.8433 -175.716
82 -8.5 -5.5 1.5 51.8146 -75.4012 82.8419
83 -7.5 -5.5 1.5 52.8086 -75.2572 -12.0553
84 -6.5 -5.5 1.5 53.8029 -76.8139 -103.492
85 -5.5 -5.5 1.5 54.7974 -76.8825 153.618
86 -4.5 -5.5 1.5 55.792 -76.0932 60.9018
87 -3.5 -5.5 1.5 56.7869 -75.7971 -57.9847
88 -2.5 -5.5 1.5 57.7819 -75.9476 -134.991
89 -1.5 -5.5 1.5 58.7771 -78.8839 124.366
90 -0.5 -5.5 1.5 59.7725 -81.6092 18.3325
91 0.5 -5.5 1.5 60.768 -109.985 75.1811
92 1.5 -5.5 1.5 61.7637 -85.7601 142.737
93 2.5 -5.5 1.5 62.7595 -86.586 33.4948
94 3.5 -5.5 1.5 63.7554 -89.3632 -90.8874
95 4.5 -5.5 1.5 64.7514 -88.248 150.839
96 5.5 -5.5 1.5 65.7476 -91.937 35.8026
97 6.5 -5.5 1.5 66.7439 -91.4104 -87.2278
98 7.5 -5.5 1.5 67.7403 -90.246 148.718
99 8.5 -5.5 1.5 68.7368 -93.3983 24.8343
100 9.5 -5.5 1.5 69.7334 -94.0565 -110.41
101 -9.5 -4.5 1.5 50.7223 -76.263 -68.0356
102 -8.5 -4.5 1.5 51.718 -75.4995 -172.3
103 -7.5 -4.5 1.5 52.7139 -76.5378 80.2446
104 -6.5 -4.5 1.5 53.7099 -77.1317 -19.0577
105 -5.5 -4.5 1.5 54.706 -76.4524 -130.33
106 -4.5 -4.5 1.5 55.7023 -111.626 85.4237
107 -3.5 -4.5 1.5 56.6988 -111.112 55.8714
108 -2.5 -4.5 1.5 57.6953 -97.618 50.1391
109 -1.5 -4.5 1.5 58.692 -96.6484 23.2469
110 -0.5 -4.5 1.5 59.6888 -97.7086 -51.2631
111 0.5 -4.5 1.5 60.6857 -97.1469 -123.46
112 1.5 -4.5 1.5 61.6827 -96.4374 115.719
113 2.5 -4.5 1.5 62.6797 -95.7302 14.8321
114 3.5 -4.5 1.5 63.6769 -98.2747 -131.695
115 4.5 -4.5 1.5 64.6742 -96.6542 131.892
116 5.5 -4.5 1.5 65.6715 -96.9282 11.1828
117 6.5 -4.5 1.5 66.669 -103.772 -89.7905
118 7.5 -4.5 1.5 67.6665 -97.9297 123.583
119 8.5 -4.5 1.5 68.664 -98.7447 7.51387
120 9.5 -4.5 1.5 69.6617 -105.075 -96.6819
121 -9.5 -3.5 1.5 50.6434 -76.0198 -51.4448
122 -8.5 -3.5 1.5 51.6406 -75.3834 -158.424
123 -7.5 -3.5 1.5 52.6379 -76.5908 85.0728
124 -6.5 -3.5 1.5 53.6353 -76.4507 -31.504
125 -5.5 -3.5 1.5 54.6329 -76.5836 -138.37
126 -4.5 -3.5 1.5 55.6305 -112.161 -8.95483
127 -3.5 -3.5 1.5 56.6282 -109.965 -85.1045
128 -2.5 -3.5 1.5 57.6259 -103.07 74.8923
129 -1.5 -3.5 1.5 58.6238 -102.791 97.9364
130 -0.5 -3.5 1.5 59.6217 -107.804 -31.9049
131 0.5 -3.5 1.5 60.6197 -104.19 44.1182
132 1.5 -3.5 1.5 61.6178 -107.832 83.7232
133 2.5 -3.5 1.5 62.6159 -99.4597 89.0981
134 3.5 -3.5 1.5 63.6141 -98.5392 48.8812
135 4.5 -3.5 1.5 64.6123 -78.1801 152.736
136 5.5 -3.5 1.5 65.6106 -78.5513 32.2493
137 6.5 -3.5 1.5 66.6089 -77.8928 -87.1316
138 7.5 -3.5 1.5 67.6073 -78.2347 157.867
139 8.5 -3.5 1.5 68.6058 -78.0348 47.1656
140 9.5 -3.5 1.5 69.6042 -77.9514 -73.8365
141 -9.5 -2.5 1.5 50.5841 -75.5841 -125.618
142 -8.5 -2.5 1.5 51.5825 -75.6725 114.755
143 -7.5 -2.5 1.5 52.5809 -76.3801 -1.69735
144 -6.5 -2.5 1.5 53.5794 -76.6406 -116.702
145 -5.5 -2.5 1.5 54.5779 -76.9082 119.974
146 -4.5 -2.5 1.5 55.5765 -77.119 0.39914
147 -3.5 -2.5 1.5 56.5752 -77.4605 -112.514
148 -2.5 -2.5 1.5 57.5739 -77.5462 130.161
149 -1.5 -2.5 1.5 58.5726 -77.7923 9.28626
150 -0.5 -2.5 1.5 59.5714 -77.8779 -108.468
151 0.5 -2.5 1.5 60.5702 -78.5511 131.461
152 1.5 -2.5 1.5 61.5691 -78.0909 12.1467
153 2.5 -2.5 1.5 62.568 -77.9725 -106.592
154 3.5 -2.5 1.5 63.5669 -78.3161 127.528
155 4.5 -2.5 1.5 64.5659 -78.0852 16.3429
156 5.5 -2.5 1.5 65.5649 -78.6857 -104.407
157 6.5 -2.5 1.5 66.5639 -78.5641 133.043
158 7.5 -2.5 1.5 67.5629 -79.6664 16.3263
159 8.5 -2.5 1.5 68.562 -79.4464 -107.915
160 9.5 -2.5 1.5 69.5611 -79.6497 132.919
161 -9.5 -1.5 1.5 50.5445 -75.5257 66.263
162 -8.5 -1.5 1.5 51.5437 -78.0544 -55.8659
163 -7.5 -1.5 1.5 52.5428 -75.3232 -176.403
164 -6.5 -1.5 1.5 53.542 -76.5963 63.1145
165 -5.5 -1.5 1.5 54.5413 -78.5882 -61.6953
166 -4.5 -1.5 1.5 55.5405 -76.7866 -168.38
167 -3.5 -1.5 1.5 56.5398 -76.7963 56.6515
168 -2.5 -1.5 1.5 57.5391 -77.7976 -64.5148
169 -1.5 -1.5 1.5 58.5384 -76.6561 -175.893
170 -0.5 -1.5 1.5 59.5378 -76.4685 48.7677
171 0.5 -1.5 1.5 60.5372 -78.4334 -66.7464
172 1.5 -1.5 1.5 61.5366 -77.5261 -177.638
173 2.5 -1.5 1.5 62.536 -79.237 37.0878
174 3.5 -1.5 1.5 63.5354 -76.8666 -91.4521
175 4.5 -1.5 1.5 64.5349 -76.4322 147.962
176 5.5 -1.5 1.5 65.5343 -75.4358 35.2131
177 6.5 -1.5 1.5 66.5338 -75.0389 -86.2216
178 7.5 -1.5 1.5 67.5333 -74.6103 153.235
179 8.5 -1.5 1.5 68.5328 -73.8953 34.9057
180 9.5 -1.5 1.5 69.5324 -74.0415 -81.8078
181 -9.5 -0.5 1.5 50.5247 -75.0527 165.035
182 -8.5 -0.5 1.5 51.5243 -75.488 37.8231
183 -7.5 -0.5 1.5 52.5238 -75.1763 -89.1845
184 -6.5 -0.5 1.5 53.5234 -76.9088 154.954
185 -5.5 -0.5 1.5 54.5229 -74.874 35.6501
186 -4.5 -0.5 1.5 55.5225 -75.9337 -98.5681
187 -3.5 -0.5 1.5 56.5221 -77.5489 143.814
188 -2.5 -0.5 1.5 57.5217 -76.3344 32.5025
189 -1.5 -0.5 1.5 58.5214 -76.2036 -112.111
190 -0.5 -0.5 1.5 59.521 -80.0364 140.956
191 0.5 -0.5 1.5 60.5207 -77.8492 17.4268
192 1.5 -0.5 1.5 61.5203 -77.8725 -103.895
193 2.5 -0.5 1.5 62.52 -80.035 114.729
194 3.5 -0.5 1.5 63.5197 -76.1963 -11.9721
195 4.5 -0.5 1.5 64.5194 -76.6251 -133.588
196 5.5 -0.5 1.5 65.5191 -75.4894 103.02
197 6.5 -0.5 1.5 66.5188 -74.6207 -17.4988
198 7.5 -0.5 1.5 67.5185 -74.2342 -134.392
199 8.5 -0.5 1.5 68.5182 -74.7938 108.42
200 9.5 -0.5 1.5 69.518 -75.1975 -9.94024
201 -9.5 0.5 1.5 50.5247 -75.9782 166.433
202 -8.5 0.5 1.5 51.5243 -75.6319 43.1499
203 -7.5 0.5 1.5 52.5238 -75.6969 -84.0679
204 -6.5 0.5 1.5 53.5234 -77.812 155.257
205 -5.5 0.5 1.5 54.5229 -75.0935 38.1138
206 -4.5 0.5 1.5 55.5225 -76.3254 -104.525
207 -3.5 0.5 1.5 56.5221 -77.6203 159.271
208 -2.5 0.5 1.5 57.5217 -76.8911 23.5096
209 -1.5 0.5 1.5 58.5214 -77.8574 -99.92
210 -0.5 0.5 1.5 59.521 -80.9807 123.696
211 0.5 0.5 1.5 60.5207 -77.9133 22.4008
212 1.5 0.5 1.5 61.5203 -77.2258 -110.896
213 2.5 0.5 1.5 62.52 -81.7121 102.356
214 3.5 0.5 1.5 63.5197 -78.5412 -14.1503
215 4.5 0.5 1.5 64.5194 -74.5165 -143.185
216 5.5 0.5 1.5 65.5191 -75.7249 98.2233
217 6.5 0.5 1.5 66.5188 -75.8364 -1.44876
218 7.5 0.5 1.5 67.5185 -73.5295 -128.595
219 8.5 0.5 1.5 68.5182 -75.4629 90.974
220 9.5 0.5 1.5 69.518 -75.0376 -4.9544
221 -9.5 1.5 1.5 50.5445 -76.3529 64.158
222 -8.5 1.5 1.5 51.5437 -76.7727 -49.6654
223 -7.5 1.5 1.5 52.5428 -75.9124 -174.786
224 -6.5 1.5 1.5 53.542 -76.1116 58.8047
225 -5.5 1.5 1.5 54.5413 -75.7973 -51.9128
226 -4.5 1.5 1.5 55.5405 -76.9082 -179.191
227 -3.5 1.5 1.5 56.5398 -76.7965 67.9524
228 -2.5 1.5 1.5 57.5391 -77.2295 -61.1936
229 -1.5 1.5 1.5 58.5384 -77.301 -174.883
230 -0.5 1.5 1.5 59.5378 -77.9112 58.2485
231 0.5 1.5 1.5 60.5372 -79.0602 -62.8239
232 1.5 1.5 1.5 61.5366 -77.4369 176.84
233 2.5 1.5 1.5 62.536 -77.8712 51.2238
234 3.5 1.5 1.5 63.5354 -77.2675 -67.2189
235 4.5 1.5 1.5 64.5349 -80.5334 160.853
236 5.5 1.5 1.5 65.5343 -75.5224 35.488
237 6.5 1.5 1.5 66.5338 -76.5564 -91.5145
238 7.5 1.5 1.5 67.5333 -73.8446 155.881
239 8.5 1.5 1.5 68.5328 -74.9436 40.7822
240 9.5 1.5 1.5 69.5324 -75.1234 -84.4269
241 -9.5 2.5 1.5 50.5841 -76.5259 -119.903
242 -8.5 2.5 1.5 51.5825 -75.8163 115.809
243 -7.5 2.5 1.5 52.5809 -76.7475 -3.15046
244 -6.5 2.5 1.5 53.5794 -75.9785 -114.879
245 -5.5 2.5 1.5 54.5779 -76.0455 130.044
246 -4.5 2.5 1.5 55.5765 -77.3905 18.5826
247 -3.5 2.5 1.5 56.5752 -79.6393 -109.56
248 -2.5 2.5 1.5 57.5739 -75.9645 139.005
249 -1.5 2.5 1.5 58.5726 -76.4895 -5.21029
250 -0.5 2.5 1.5 59.5714 -79.0219 -101.973
251 0.5 2.5 1.5 60.5702 -77.6798 133.634
252 1.5 2.5 1.5 61.5691 -76.2069 22.4118
253 2.5 2.5 1.5 62.568 -78.4912 -115.05
254 3.5 2.5 1.5 63.5669 -77.0522 138.232
255 4.5 2.5 1.5 64.5659 -77.2745 22.0781
256 5.5 2.5 1.5 65.5649 -80.6699 -110.721
257 6.5 2.5 1.5 66.5639 -76.8972 130.268
258 7.5 2.5 1.5 67.5629 -77.1486 10.7301
259 8.5 2.5 1.5 68.562 -77.0267 -89.2802
260 9.5 2.5 1.5 69.5611 -79.8199 140.25
261 -9.5 3.5 1.5 50.6434 -75.8465 -55.1426
262 -8.5 3.5 1.5 51.6406 -76.3405 -162.703
263 -7.5 3.5 1.5 52.6379 -75.5552 89.7119
264 -6.5 3.5 1.5 53.6353 -76.4568 -25.6411
265 -5.5 3.5 1.5 54.6329 -77.2452 -135.162
266 -4.5 3.5 1.5 55.6305 -76.0579 110.442
267 -3.5 3.5 1.5 56.6282 -77.9203 -12.6182
268 -2.5 3.5 1.5 57.6259 -78.0917 -108.687
269 -1.5 3.5 1.5 58.6238 -75.3228 123.117
270 -0.5 3.5 1.5 59.6217 -78.563 19.1726
271 0.5 3.5 1.5 60.6197 -78.9021 -107.426
272 1.5 3.5 1.5 61.6178 -75.9199 127.92
273 2.5 3.5 1.5 62.6159 -76.1549 23.1467
274 3.5 3.5 1.5 63.6141 -75.5544 -77.6585
275 4.5 3.5 1.5 64.6123 -77.1652 166.034
276 5.5 3.5 1.5 65.6106 -80.0676 63.3966
277 6.5 3.5 1.5 66.6089 -80.5118 -60.8468
278 7.5 3.5 1.5 67.6073 -81.2281 -177.572
279 8.5 3.5 1.5 68.6058 -81.4351 4.18648
280 9.5 3.5 1.5 69.6042 -77.0302 -49.3374
281 -9.5 4.5 1.5 50.7223 -75.9689 -68.7354
282 -8.5 4.5 1.5 51.718 -76.1052 -174.897
283 -7.5 4.5 1.5 52.7139 -76.4215 78.3702
284 -6.5 4.5 1.5 53.7099 -75.372 -25.2902
285 -5.5 4.5 1.5 54.706 -78.0066 -141.666
286 -4.5 4.5 1.5 55.7023 -74.2836 127.871
287 -3.5 4.5 1.5 56.6988 -75.1631 32.1918
288 -2.5 4.5 1.5 57.6953 -77.3546 -68.0141
289 -1.5 4.5 1.5 58.692 -74.9038 146.927
290 -0.5 4.5 1.5 59.6888 -74.8967 36.7557
291 0.5 4.5 1.5 60.6857 -76.3682 -75.3502
292 1.5 4.5 1.5 61.6827 -76.8667 -177.818
293 2.5 4.5 1.5 62.6797 -76.4793 67.1522
294 3.5 4.5 1.5 63.6769 -78.0656 -45.598
295 4.5 4.5 1.5 64.6742 -77.8863 -148.226
296 5.5 4.5 1.5 65.6715 -77.5035 92.8457
297 6.5 4.5 1.5 66.669 -79.306 -18.5003
298 7.5 4.5 1.5 67.6665 -78.4417 -122.168
299 8.5 4.5 1.5 68.664 -78.2343 115.186
300 9.5 4.5 1.5 69.6617 -80.1947 6.07728
301 -9.5 5.5 1.5 50.8208 -75.9965 176.469
302 -8.5 5.5 1.5 51.8146 -76.402 77.109
303 -7.5 5.5 1.5 52.8086 -76.3192 -7.7594
304 -6.5 5.5 1.5 53.8029 -76.2956 -111.879
305 -5.5 5.5 1.5 54.7974 -76.4559 149.918
306 -4.5 5.5 1.5 55.792 -76.6133 50.7601
307 -3.5 5.5 1.5 56.7869 -76.6469 -50.5236
308 -2.5 5.5 1.5 57.7819 -76.8125 -149.943
309 -1.5 5.5 1.5 58.7771 -77.006 107.76
310 -0.5 5.5 1.5 59.7725 -77.2715 5.49576
311 0.5 5.5 1.5 60.768 -77.3601 -97.7185
312 1.5 5.5 1.5 61.7637 -77.5021 158.335
313 2.5 5.5 1.5 62.7595 -77.6418 53.7217
314 3.5 5.5 1.5 63.7554 -77.7793 -51.5271
315 4.5 5.5 1.5 64.7514 -77.9146 -157.382
316 5.5 5.5 1.5 65.7476 -78.0478 96.1845
317 6.5 5.5 1.5 66.7439 -78.1791 -10.8015
318 7.5 5.5 1.5 67.7403 -78.3084 -118.316
319 8.5 5.5 1.5 68.7368 -78.4358 133.665
320 9.5 5.5 1.5 69.7334 -78.5613 25.1622
321 -9.5 6.5 1.5 50.9387 -75.6082 -33.0841
322 -8.5 6.5 1.5 51.9302 -76.1102 -119.368
323 -7.5 6.5 1.5 52.9221 -75.9352 158.03
324 -6.5 6.5 1.5 53.9143 -76.2984 71.6559
325 -5.5 6.5 1.5 54.9067 -76.4588 -16.8101
326 -4.5 6.5 1.5 55.8995 -76.6162 -106.577
327 -3.5 6.5 1.5 56.8924 -76.5686 163.278
328 -2.5 6.5 1.5 57.8857 -77.0291 69.7964
329 -1.5 6.5 1.5 58.8791 -77.0299 -23.489
330 -0.5 6.5 1.5 59.8728 -77.1654 -117.538
331 0.5 6.5 1.5 60.8667 -77.3631 147.316
332 1.5 6.5 1.5 61.8607 -77.5051 51.0283
333 2.5 6.5 1.5 62.855 -77.6447 -46.1679
334 3.5 6.5 1.5 63.8494 -77.7822 -144.23
335 4.5 6.5 1.5 64.844 -77.9175 116.881
336 5.5 6.5 1.5 65.8388 -78.0507 17.204
337 6.5 6.5 1.5 66.8337 -78.182 -83.2267
338 7.5 6.5 1.5 67.8288 -78.3112 175.622
339 8.5 6.5 1.5 68.8241 -78.4386 73.7824
340 9.5 6.5 1.5 69.8194 -78.5641 -28.7169
341 -9.5 7.5 1.5 51.0759 -75.6898 26.6303
342 -8.5 7.5 1.5 52.0649 -75.8333 -47.1878
343 -7.5 7.5 1.5 53.0542 -76.1191 -117.821
344 -6.5 7.5 1.5 54.044 -76.3001 167.189
345 -5.5 7.5 1.5 55.0341 -76.4607 90.0075
346 -4.5 7.5 1.5 56.0245 -76.6182 11.128
347 -3.5 7.5 1.5 57.0153 -77.0308 -69.8126
348 -2.5 7.5 1.5 58.0065 -76.9345 -150.477
349 -1.5 7.5 1.5 58.9979 -77.0317 124.644
350 -0.5 7.5 1.5 59.9896 -77.2475 40.7145
351 0.5 7.5 1.5 60.9816 -77.3656 -45.8328
352 1.5 7.5 1.5 61.9738 -77.5076 -133.231
353 2.5 7.5 1.5 62.9663 -77.6473 138.182
354 3.5 7.5 1.5 63.959 -77.7848 48.4631
355 4.5 7.5 1.5 64.9519 -77.9201 -42.3366
356 5.5 7.5 1.5 65.9451 -78.0533 -134.168
357 6.5 7.5 1.5 66.9384 -78.1846 133.015
358 7.5 7.5 1.5 67.932 -78.3138 39.256
359 8.5 7.5 1.5 68.9257 -78.4412 -55.4048
360 9.5 7.5 1.5 69.9196 -78.5667 -150.929
361 -9.5 8.5 1.5 51.2323 -76.0631 -4.86097
362 -8.5 8.5 1.5 52.2183 -75.9567 -59.3762
363 -7.5 8.5 1.5 53.2048 -76.1722 -122.618
364 -6.5 8.5 1.5 54.1918 -76.2665 175.524
365 -5.5 8.5 1.5 55.1793 -76.4609 110.976
366 -4.5 8.5 1.5 56.1672 -76.6187 44.4468
367 -3.5 8.5 1.5 57.1555 -76.6742 -22.3815
368 -2.5 8.5 1.5 58.1442 -76.8042 -94.0841
369 -1.5 8.5 1.5 59.1333 -76.9907 -167.217
370 -0.5 8.5 1.5 60.1228 -77.2231 118.541
371 0.5 8.5 1.5 61.1126 -77.367 43.2805
372 1.5 8.5 1.5 62.1027 -77.5092 -34.0202
373 2.5 8.5 1.5 63.0932 -77.649 -112.824
374 3.5 8.5 1.5 64.0839 -77.7866 166.938
375 4.5 8.5 1.5 65.075 -77.922 85.3327
376 5.5 8.5 1.5 66.0663 -78.0553 2.42092
377 6.5 8.5 1.5 67.0578 -78.1866 -81.7392
378 7.5 8.5 1.5 68.0496 -78.3159 -167.093
379 8.5 8.5 1.5 69.0417 -78.4434 106.411
380 9.5 8.5 1.5 70.0339 -78.5689 18.8221
381 -9.5 9.5 1.5 51.4077 -75.7995 -129.634
382 -8.5 9.5 1.5 52.3904 -75.7098 -173.581
383 -7.5 9.5 1.5 53.3737 -76.2517 144.274
384 -6.5 9.5 1.5 54.3576 -76.3502 96.953
385 -5.5 9.5 1.5 55.3421 -76.478 47.0713
386 -4.5 9.5 1.5 56.3272 -76.6125 -6.20355
387 -3.5 9.5 1.5 57.3127 -76.7726 -61.2249
388 -2.5 9.5 1.5 58.2988 -76.7974 -118.276
389 -1.5 9.5 1.5 59.2853 -77.0133 -178.206
390 -0.5 9.5 1.5 60.2723 -77.2234 119.724
391 0.5 9.5 1.5 61.2597 -77.3671 55.159
392 1.5 9.5 1.5 62.2475 -77.5095 -10.8585
393 2.5 9.5 1.5 63.2357 -77.6495 -78.7293
394 3.5 9.5 1.5 64.2242 -77.7873 -148.368
395 4.5 9.5 1.5 65.2131 -77.9229 140.306
396 5.5 9.5 1.5 66.2023 -78.0563 67.369
397 6.5 9.5 1.5 67.1919 -78.1878 -7.10849
398 7.5 9.5 1.5 68.1817 -78.3172 -83.0591
399 8.5 9.5 1.5 69.1719 -78.4447 -160.419
400 9.5 9.5 1.5 70.1623 -78.5704 120.87
